File: XRD/NaBr_Theta_2-Theta.asc
*TYPE		=  Raw
*CLASS		=  ASCII CLASS
*SAMPLE		=  NaBr
*COMMENT	=
*FNAME		=  NaBr_Theta_2-Theta.asc
*DATE		=  21-Feb-25 12:16

*GROUP_COUNT	=  1
*GONIO		=  MiniFlex 300/600, 150
*ATTACHMENT	=  ASC-6
*ASC		=  0, 0, 0.000000, 0.000000
*FILTER		=  None
*C_MONOCHRO	=  None, 0.000000
*SLIT_NAME	=  0, IHS
*SLIT_NAME	=  1, DS +
*SLIT_NAME	=  2, SS
*SLIT_NAME	=  3, RS
*COUNTER	=  SC-70, 0
*POS_FORMAT	=  0
*SCAN_AXIS	=  2theta/theta
*MEAS_MODE	=  Continuous Scanning
*TARGET		=  29
*XRAY_CHAR	=  K-ALPHA
*WAVE_LENGTH1	=  1.54059
*WAVE_LENGTH2	=  1.54441
*THICKNESS	=  0, 0.000000
*MU		=  0, 0.000000
*SCAN_MODE	=  2theta/theta
*SPEED_DIM	=  sec./step
*XUNIT		=  deg.
*YUNIT		=  counts
*SCALE_MODE	=  1
*REP_COUNT	=  0
*SE_COUNT	=  0
*STD_MATERIAL	=  Unknown, Unknown, 0.000000, 0.000000, 0.000000, 0.000000, 0.000000, 0.000000
*LATT_CONS	=  0, Unknown, Unknown, 0.000000, 0.000000, 0.000000, 0.000000, 0.000000, 0.000000
*SEC_COUNT	=  1
*TSPEC_SIZE	=  0
*EXTRA_SIZE	=  0
*MEMO		=

*BEGIN
*GROUP		=  0
*START		=  2.01
*STOP		=  69.99
*STEP		=  0.02
*OFFSET		=  0.000000
*SPEED		=  0.6
*SLIT_SPEC	=  0, 10.0mm, 10, 0.000000
*SLIT_SPEC	=  1, 1.250deg, 1.25, 0.000000
*SLIT_SPEC	=  2, 13.0mm(Open), 13, 0.000000
*SLIT_SPEC	=  3, 13.0mm, 13, 0.000000
*KV		=  40
*MA		=  15
*LOW		=  0.000000
*HIGH		=  0.000000
*CTEMPER	=  0, 0.000000
*CTEMPER	=  1, 0.000000
*CTEMPER	=  2, 0.000000
*PAREX		=  0, 0.000000
*PAREX		=  1, 0.000000
*PAREX		=  2, 0.000000
*PAREX		=  3, 0.000000
*PAREX		=  4, 0.000000
*PAREX		=  5, 0.000000
*PAREX		=  6, 0.000000
*PAREX		=  7, 0.000000
*PAREX		=  8, 0.000000
*PAREX		=  9, 0.000000
*PAREX		=  10, 0.000000
*PAREX		=  11, 0.000000
*PAREX		=  12, 0.000000
*PAREX		=  13, 0.000000
*PAREX		=  14, 0.000000
*PAREX		=  15, 0.000000
*FULL_SCALE	=  2113.2
*INDEX		=  0, 0, 0
*COUNT		=  3400
697, 726, 774, 523
564, 625, 628, 614
540, 617, 576, 527
424, 455, 391, 535
314, 418, 471, 431
378, 306, 356, 320
400, 258, 251, 218
314, 221, 280, 224
276, 251, 202, 271
273, 250, 253, 252
220, 240, 151, 209
229, 212, 251, 186
271, 190, 235, 207
193, 199, 206, 194
219, 170, 221, 182
190, 176, 175, 175
182, 185, 190, 177
153, 199, 177, 200
159, 165, 220, 199
199, 150, 189, 192
208, 164, 175, 201
228, 196, 169, 160
156, 158, 153, 170
156, 161, 183, 190
147, 170, 146, 181
147, 158, 181, 157
120, 176, 178, 164
130, 149, 131, 140
148, 135, 143, 159
133, 131, 124, 153
93, 144, 121, 145
134, 122, 126, 126
120, 104, 115, 104
132, 96, 137, 114
127, 114, 134, 128
102, 120, 129, 102
128, 112, 93, 115
137, 110, 123, 102
91, 79, 80, 100
113, 76, 95, 80
89, 90, 120, 90
114, 84, 96, 94
96, 100, 79, 100
74, 83, 100, 74
77, 67, 71, 86
104, 86, 92, 78
93, 69, 80, 66
69, 80, 84, 71
79, 87, 77, 84
79, 81, 95, 91
75, 85, 73, 85
80, 68, 73, 81
63, 81, 95, 93
104, 82, 75, 72
74, 70, 75, 64
85, 76, 65, 66
64, 48, 68, 57
64, 76, 81, 76
69, 76, 73, 71
59, 72, 70, 61
67, 50, 66, 63
71, 83, 91, 67
114, 134, 151, 217
160, 107, 99, 93
63, 72, 76, 74
72, 60, 63, 57
56, 62, 77, 81
85, 98, 81, 68
71, 53, 57, 67
57, 51, 60, 69
53, 53, 61, 64
61, 55, 67, 54
63, 59, 51, 50
59, 63, 52, 61
62, 58, 52, 75
65, 49, 60, 65
66, 53, 55, 50
49, 63, 49, 59
58, 40, 55, 63
49, 48, 60, 58
60, 61, 54, 56
58, 56, 54, 70
45, 65, 45, 76
66, 47, 52, 68
97, 136, 199, 348
96, 76, 71, 68
78, 59, 85, 67
58, 61, 56, 63
55, 53, 71, 60
178, 174, 117, 115
285, 241, 120, 86
52, 50, 53, 73
61, 62, 59, 53
47, 55, 53, 58
52, 45, 62, 54
55, 51, 48, 47
56, 70, 60, 49
51, 71, 57, 53
70, 56, 66, 71
99, 143, 229, 359
193, 154, 153, 181
60, 74, 69, 63
82, 102, 122, 133
107, 81, 65, 65
65, 67, 61, 75
73, 49, 70, 69
64, 56, 71, 51
52, 65, 54, 53
78, 60, 80, 55
60, 57, 70, 67
77, 79, 86, 66
136, 137, 161, 193
796, 471, 268, 128
65, 83, 93, 81
78, 63, 62, 72
286, 293, 331, 471
466, 316, 235, 136
76, 90, 63, 72
154, 134, 93, 94
125, 125, 112, 93
65, 69, 59, 57
76, 78, 85, 86
69, 68, 59, 57
67, 58, 53, 70
60, 48, 53, 63
74, 80, 78, 109
83, 87, 109, 153
69, 62, 62, 59
71, 75, 55, 54
60, 48, 62, 62
77, 80, 69, 85
220, 216, 181, 127
67, 85, 67, 73
58, 60, 52, 58
65, 66, 74, 66
499, 414, 341, 310
59, 73, 62, 59
62, 72, 63, 55
62, 82, 62, 55
57, 64, 60, 61
85, 114, 199, 241
95, 75, 70, 62
71, 50, 62, 49
57, 67, 63, 51
59, 59, 59, 52
49, 73, 59, 56
61, 49, 54, 62
99, 68, 104, 88
538, 459, 415, 312
64, 58, 66, 58
54, 75, 59, 54
49, 53, 48, 62
62, 69, 70, 63
58, 59, 49, 56
54, 55, 52, 54
60, 60, 50, 61
78, 68, 54, 52
59, 54, 45, 59
55, 48, 66, 49
60, 49, 54, 65
64, 62, 72, 59
54, 44, 56, 43
52, 46, 61, 40
102, 88, 95, 113
59, 88, 100, 75
216, 145, 179, 161
65, 67, 40, 63
52, 47, 47, 62
56, 69, 64, 48
62, 56, 57, 56
74, 76, 82, 76
72, 68, 72, 58
73, 63, 57, 80
55, 78, 58, 74
64, 66, 85, 66
75, 76, 84, 86
64, 55, 58, 54
86, 60, 76, 80
86, 91, 105, 106
657, 462, 477, 559
94, 76, 68, 63
70, 57, 53, 72
69, 80, 67, 78
70, 76, 97, 109
87, 74, 70, 65
105, 103, 74, 61
74, 69, 60, 57
56, 54, 65, 58
56, 55, 59, 53
59, 53, 64, 43
84, 65, 58, 39
54, 62, 51, 53
44, 66, 58, 47
59, 53, 61, 58
62, 40, 49, 58
48, 59, 59, 65
88, 155, 236, 289
87, 63, 54, 51
49, 49, 67, 60
50, 53, 62, 65
56, 58, 67, 58
64, 60, 66, 54
52, 78, 61, 59
57, 50, 61, 62
51, 69, 53, 75
51, 57, 65, 53
43, 67, 59, 48
49, 58, 54, 65
51, 58, 66, 56
76, 60, 56, 66
60, 66, 65, 69
53, 42, 62, 50
63, 61, 64, 65
45, 47, 52, 56
76, 53, 57, 58
55, 53, 49, 43
50, 65, 57, 46
51, 50, 49, 64
43, 59, 57, 47
54, 60, 62, 63
60, 93, 90, 103
79, 75, 54, 72
71, 64, 60, 55
46, 65, 56, 65
66, 67, 64, 54
84, 61, 82, 78
45, 68, 59, 54
66, 57, 59, 62
58, 47, 52, 45
61, 58, 62, 66
53, 70, 51, 59
61, 53, 65, 48
68, 64, 90, 127
118, 113, 91, 93
57, 58, 65, 73
53, 44, 60, 62
58, 52, 59, 62
43, 51, 57, 57
57, 59, 55, 60
49, 49, 61, 53
55, 44, 54, 54
59, 57, 54, 65
61, 61, 53, 53
61, 59, 65, 72
190, 215, 199, 188
56, 76, 65, 62
52, 48, 48, 61
63, 70, 60, 64
54, 58, 68, 62
56, 61, 67, 63
60, 70, 42, 76
67, 57, 49, 63
48, 64, 52, 60
60, 54, 49, 66
61, 49, 49, 55
62, 54, 57, 67
53, 51, 48, 59
56, 52, 52, 51
46, 44, 50, 49
54, 59, 68, 57
49, 47, 56, 50
52, 44, 50, 48
45, 63, 49, 53
59, 51, 51, 63
66, 41, 61, 64
59, 53, 63, 57
41, 51, 53, 48
55, 47, 48, 44
51, 63, 47, 66
57, 65, 47, 51
52, 57, 48, 58
60, 58, 53, 57
55, 54, 50, 73
53, 41, 59, 44
51, 47, 39, 69
47, 56, 52, 53
61, 49, 57, 65
68, 66, 53, 65
58, 55, 59, 59
53, 56, 51, 51
67, 56, 57, 49
58, 52, 61, 59
51, 58, 52, 48
64, 62, 38, 60
*END

*EOF