File: XRD/NaCl_Theta_2-Theta.asc
*TYPE		=  Raw
*CLASS		=  ASCII CLASS
*SAMPLE		=  NaCl
*COMMENT	=
*FNAME		=  NaCl_Theta_2-Theta.asc
*DATE		=  21-Feb-25 11:41

*GROUP_COUNT	=  1
*GONIO		=  MiniFlex 300/600, 150
*ATTACHMENT	=  ASC-6
*ASC		=  0, 0, 0.000000, 0.000000
*FILTER		=  None
*C_MONOCHRO	=  None, 0.000000
*SLIT_NAME	=  0, IHS
*SLIT_NAME	=  1, DS +
*SLIT_NAME	=  2, SS
*SLIT_NAME	=  3, RS
*COUNTER	=  SC-70, 0
*POS_FORMAT	=  0
*SCAN_AXIS	=  2theta/theta
*MEAS_MODE	=  Continuous Scanning
*TARGET		=  29
*XRAY_CHAR	=  K-ALPHA
*WAVE_LENGTH1	=  1.54059
*WAVE_LENGTH2	=  1.54441
*THICKNESS	=  0, 0.000000
*MU		=  0, 0.000000
*SCAN_MODE	=  2theta/theta
*SPEED_DIM	=  sec./step
*XUNIT		=  deg.
*YUNIT		=  counts
*SCALE_MODE	=  1
*REP_COUNT	=  0
*SE_COUNT	=  0
*STD_MATERIAL	=  Unknown, Unknown, 0.000000, 0.000000, 0.000000, 0.000000, 0.000000, 0.000000
*LATT_CONS	=  0, Unknown, Unknown, 0.000000, 0.000000, 0.000000, 0.000000, 0.000000, 0.000000
*SEC_COUNT	=  1
*TSPEC_SIZE	=  0
*EXTRA_SIZE	=  0
*MEMO		=

*BEGIN
*GROUP		=  0
*START		=  2.01
*STOP		=  69.99
*STEP		=  0.02
*OFFSET		=  0.000000
*SPEED		=  0.6
*SLIT_SPEC	=  0, 10.0mm, 10, 0.000000
*SLIT_SPEC	=  1, 1.250deg, 1.25, 0.000000
*SLIT_SPEC	=  2, 13.0mm(Open), 13, 0.000000
*SLIT_SPEC	=  3, 13.0mm, 13, 0.000000
*KV		=  40
*MA		=  15
*LOW		=  0.000000
*HIGH		=  0.000000
*CTEMPER	=  0, 0.000000
*CTEMPER	=  1, 0.000000
*CTEMPER	=  2, 0.000000
*PAREX		=  0, 0.000000
*PAREX		=  1, 0.000000
*PAREX		=  2, 0.000000
*PAREX		=  3, 0.000000
*PAREX		=  4, 0.000000
*PAREX		=  5, 0.000000
*PAREX		=  6, 0.000000
*PAREX		=  7, 0.000000
*PAREX		=  8, 0.000000
*PAREX		=  9, 0.000000
*PAREX		=  10, 0.000000
*PAREX		=  11, 0.000000
*PAREX		=  12, 0.000000
*PAREX		=  13, 0.000000
*PAREX		=  14, 0.000000
*PAREX		=  15, 0.000000
*FULL_SCALE	=  14370
*INDEX		=  0, 0, 0
*COUNT		=  3400
706, 864, 728, 694
697, 444, 644, 485
502, 483, 627, 527
479, 577, 458, 522
321, 350, 391, 400
326, 410, 350, 320
260, 215, 235, 271
243, 231, 235, 224
204, 189, 202, 220
188, 174, 177, 212
135, 211, 189, 163
157, 136, 167, 194
134, 148, 140, 158
127, 160, 166, 148
104, 156, 121, 144
140, 149, 172, 128
147, 140, 127, 142
135, 183, 171, 185
198, 224, 214, 222
267, 266, 277, 270
291, 263, 352, 332
286, 325, 253, 347
287, 294, 301, 264
186, 148, 170, 165
101, 106, 100, 117
84, 98, 70, 109
102, 75, 81, 92
106, 83, 96, 76
68, 77, 94, 79
94, 85, 79, 83
87, 103, 91, 97
79, 81, 95, 83
116, 75, 90, 102
66, 68, 116, 105
92, 77, 82, 79
81, 95, 79, 71
81, 53, 65, 49
76, 60, 56, 46
47, 55, 64, 53
72, 54, 41, 62
72, 55, 55, 61
55, 57, 60, 52
51, 56, 40, 52
67, 32, 47, 59
63, 46, 70, 67
44, 57, 64, 58
54, 56, 57, 39
51, 51, 45, 63
51, 40, 52, 54
49, 43, 47, 58
59, 60, 65, 52
60, 67, 58, 56
66, 57, 49, 63
62, 60, 68, 46
51, 70, 56, 55
55, 45, 43, 53
48, 53, 70, 50
69, 54, 63, 68
61, 60, 73, 63
68, 66, 73, 43
56, 65, 55, 47
57, 47, 48, 63
49, 57, 68, 56
54, 52, 57, 37
67, 48, 64, 49
45, 45, 35, 71
40, 43, 53, 50
57, 30, 49, 38
45, 41, 43, 46
45, 43, 40, 48
46, 58, 40, 34
52, 43, 46, 52
39, 35, 39, 39
47, 40, 51, 32
34, 38, 38, 41
38, 38, 49, 41
37, 45, 41, 35
38, 31, 31, 29
38, 36, 38, 25
41, 34, 25, 36
38, 27, 27, 30
30, 42, 24, 36
25, 34, 36, 32
28, 43, 31, 29
37, 32, 26, 29
40, 33, 33, 29
24, 33, 22, 26
27, 23, 25, 29
30, 18, 26, 25
21, 17, 15, 28
23, 18, 22, 23
15, 27, 16, 21
25, 25, 23, 21
30, 25, 18, 19
13, 17, 13, 21
31, 17, 19, 22
22, 22, 24, 20
17, 21, 19, 18
22, 21, 18, 11
16, 24, 18, 21
14, 13, 15, 18
18, 20, 20, 24
12, 13, 18, 15
22, 17, 15, 9
16, 24, 14, 22
42, 60, 74, 71
66, 48, 41, 43
18, 17, 11, 19
22, 20, 16, 15
14, 21, 16, 13
14, 26, 28, 23
103, 84, 64, 50
12, 16, 12, 29
13, 12, 11, 16
13, 20, 19, 15
18, 19, 26, 18
23, 16, 14, 15
9, 19, 12, 16
11, 31, 24, 24
37, 34, 40, 49
67, 75, 69, 61
73, 91, 96, 106
204, 245, 266, 281
549, 692, 956, 1333
11220, 10527, 9174, 7500
332, 243, 234, 222
77, 87, 65, 99
65, 65, 60, 62
49, 51, 44, 46
47, 47, 47, 41
55, 43, 37, 37
41, 41, 35, 34
34, 35, 32, 28
32, 29, 41, 35
34, 47, 29, 26
38, 23, 36, 19
31, 30, 20, 37
29, 27, 21, 23
33, 33, 18, 23
21, 15, 31, 24
31, 23, 27, 24
26, 28, 28, 17
21, 26, 19, 28
20, 25, 29, 25
11, 26, 26, 24
15, 21, 21, 18
19, 18, 21, 19
17, 18, 21, 20
22, 8, 26, 18
10, 14, 18, 19
31, 20, 18, 23
13, 18, 24, 20
21, 16, 11, 10
19, 14, 14, 11
8, 14, 11, 12
12, 16, 18, 15
16, 10, 6, 13
10, 19, 20, 16
15, 9, 15, 18
13, 10, 11, 15
15, 23, 11, 10
15, 15, 15, 8
18, 16, 13, 10
7, 8, 13, 7
5, 9, 11, 13
12, 17, 8, 11
11, 14, 8, 14
14, 11, 13, 11
11, 22, 11, 8
6, 14, 16, 6
5, 14, 10, 14
12, 6, 7, 11
14, 13, 8, 9
16, 12, 8, 11
22, 16, 20, 16
24, 8, 13, 13
15, 13, 16, 24
17, 19, 15, 11
12, 25, 13, 21
49, 39, 36, 52
82, 100, 95, 134
1156, 1069, 968, 881
112, 87, 60, 66
21, 23, 26, 17
10, 15, 19, 14
13, 10, 21, 9
14, 18, 14, 12
13, 16, 14, 12
16, 16, 10, 14
9, 12, 17, 8
7, 13, 12, 16
10, 10, 8, 6
6, 9, 8, 6
14, 11, 5, 12
11, 15, 10, 8
11, 5, 11, 9
5, 5, 6, 11
9, 8, 7, 7
8, 2, 11, 6
10, 12, 9, 4
8, 11, 4, 12
6, 11, 6, 6
6, 8, 6, 8
5, 9, 6, 9
10, 9, 10, 6
7, 9, 11, 5
13, 5, 5, 5
9, 9, 6, 5
7, 6, 8, 9
6, 8, 3, 7
3, 11, 6, 10
4, 9, 5, 4
11, 7, 10, 7
4, 8, 7, 5
8, 1, 4, 9
4, 8, 10, 10
24, 39, 32, 31
11, 11, 9, 12
9, 6, 11, 7
6, 7, 6, 5
5, 7, 9, 7
7, 8, 11, 9
4, 11, 9, 8
4, 8, 7, 8
9, 14, 18, 7
20, 13, 10, 9
25, 54, 43, 75
111, 88, 91, 80
20, 15, 21, 13
13, 8, 7, 9
6, 6, 11, 7
5, 11, 6, 6
2, 10, 12, 4
8, 4, 12, 6
6, 3, 4, 5
5, 6, 5, 7
7, 7, 5, 6
2, 10, 9, 6
14, 8, 9, 11
4, 6, 3, 4
4, 7, 9, 5
6, 7, 5, 9
9, 6, 6, 5
9, 9, 5, 3
4, 3, 6, 6
6, 4, 1, 7
3, 4, 1, 3
6, 4, 4, 7
6, 4, 8, 5
3, 8, 7, 7
7, 3, 8, 7
5, 4, 4, 2
4, 2, 6, 6
5, 6, 2, 5
4, 16, 4, 5
9, 5, 6, 10
7, 7, 12, 9
6, 11, 7, 9
7, 12, 0.000000, 8
4, 9, 8, 10
10, 8, 4, 8
13, 7, 8, 8
9, 11, 5, 12
7, 8, 3, 7
14, 8, 9, 9
10, 7, 18, 11
17, 25, 30, 23
133, 182, 191, 258
257, 217, 199, 196
27, 25, 28, 16
9, 14, 15, 12
12, 3, 6, 16
8, 7, 4, 6
8, 7, 12, 8
8, 8, 9, 12
5, 6, 3, 6
5, 10, 5, 9
10, 6, 6, 7
7, 8, 7, 0.000000
9, 2, 6, 7
9, 8, 8, 4
7, 5, 6, 6
9, 8, 5, 1
8, 8, 9, 6
*END

*EOF